cluster_idx	average mz	average RT	num spectra
4	300.203	5358.28	3
16	300.707	3243.56	2
19	301.211	3623.57	3
25	301.2	5052.91	5
27	301.349	5704.18	5
29	301.083	4603.87	3
31	301.007	4675.82	4
32	301.37	4876.38	2
44	301.795	5242.88	2
45	302.196	6137.63	2
53	303.493	3145.05	2
55	303.082	3687.06	4
56	302.847	4289.04	2
59	304.293	4481.64	3
76	303.661	4655.98	2
79	304.543	3599.04	2
82	304.66	3823.09	2
84	304.027	4261.36	2
87	304.017	4869.74	2
89	304.194	5317.37	2
97	304.838	3031.27	5
112	306.466	2714.44	3
124	305.872	5211.18	2
125	306.51	6764.96	3
130	306.831	4130.21	3
132	306.824	4344.26	2
134	306.681	5168.06	5
138	308.18	2523.24	3
140	307.716	3105.38	2
141	307.703	3061.58	2
145	308.084	4244.06	4
146	307.518	4114.24	2
148	307.716	4661.81	3
156	309.419	2200.37	2
164	309.404	3018.42	3
165	309.174	3279.79	2
167	310.255	4532.03	4
171	309.19	3785.07	3
177	308.676	4522.84	2
178	309.008	4562.93	2
179	309.168	4649.13	3
180	308.666	5203.02	2
182	309.003	5650.35	2
186	310.163	2163.59	2
191	310.137	3009.46	3
192	309.683	2912.05	2
200	309.931	4090.4	2
204	310.097	4500.04	5
205	310.355	4753.38	2
206	310.182	4858.65	3
208	310.182	5013.81	2
209	309.512	5112.57	3
210	310.174	5343.26	2
211	309.867	5567.01	2
215	311.189	3062.91	2
218	311.518	2993.77	2
226	311.958	4118.14	3
227	311.139	4660.4	2
228	310.826	4711.54	2
230	311.196	5299.03	2
231	311.179	6645.81	4
234	312.715	5926.12	26
239	311.834	3859.91	2
240	312.192	3289.6	2
242	313.156	4422.58	6
245	311.672	5226.22	2
247	311.539	5936.67	5
248	313.294	3360.67	3
249	313.284	3904.67	3
251	312.828	4346.88	2
259	314.186	3553.48	2
260	313.715	3636.98	2
264	313.977	5409.08	4
266	314.183	4874.17	2
278	314.711	2932.13	3
279	315.203	2908.86	2
281	314.71	3192.74	2
283	314.694	4100.46	2
287	314.843	4657.34	6
290	315.527	6609.05	6
291	315.203	5908.93	2
296	316.299	2155.55	2
298	315.718	2476.93	2
300	316.283	2736.13	2
307	315.957	3854.53	3
309	316.198	4174.08	3
310	316.567	3928.71	2
311	315.758	5357.59	3
313	315.78	6031.89	2
314	316.629	6212.9	2
315	316.174	6406.88	2
319	316.692	2567.21	3
320	317.479	2724.06	2
324	317.179	3546.57	4
335	317.202	4686.73	3
342	317.069	5202.37	3
343	316.524	5453.49	2
344	316.862	5530.62	2
346	317.569	5753.91	2
350	317.22	8503.74	5
357	317.687	2622.75	2
360	317.811	2901.14	2
365	318.956	4598.55	12
371	318.006	4152.56	2
372	318.73	4092.53	3
375	318.21	4425.49	2
382	317.992	5392.23	2
389	319.192	2521.79	3
394	319.253	4053.38	8
398	319.498	4030.53	2
399	318.972	5795.03	3
403	318.831	6836.56	3
405	319.163	7913.62	2
406	318.947	9836.42	4
414	319.55	3179.13	2
420	320.32	5198.36	2
421	320.195	5311.38	3
431	321.296	3107.84	2
436	320.723	4289.84	2
437	321.828	4526.31	3
440	320.519	4678.76	6
442	321.18	5066.7	2
443	320.664	5107.12	2
447	321.653	6639.14	2
448	321.184	7629.1	2
451	322.283	3762.53	9
452	322.459	2632.27	7
455	322.277	2611.63	2
458	322.778	3151.74	2
466	321.769	3725.27	2
467	321.508	4172.55	2
468	322.47	5894.22	4
469	322.182	4341.97	2
486	323.837	3958.48	2
492	323.107	4222.81	2
494	323.994	4728.57	3
501	323.015	6111.23	2
502	322.83	8025.55	2
505	324.678	1920.59	2
509	323.699	2754.65	2
510	324.431	3046.02	2
513	324.508	3383.83	3
514	324.181	3500.53	2
516	324.152	4342.75	3
521	324.296	4475.28	3
522	324.17	4624.56	4
526	324.438	5627.22	2
527	324.433	5958.13	2
528	323.534	6204.65	3
535	325.491	2459.43	2
542	324.915	4431.44	2
543	325.205	3556.38	2
544	325.047	3676.34	2
545	325.187	3994.8	2
552	325.124	5508.23	3
553	325.438	5673.13	2
555	325.195	5782.55	2
559	326.679	2622.83	2
560	326.437	2828.58	3
562	326.195	3185.05	2
568	325.853	3454.23	2
573	325.634	3980.14	2
575	326.194	4175.9	2
583	325.509	5075.14	2
587	326.693	5537.54	2
590	326.182	5839.97	2
593	326.68	5513.66	3
599	326.711	3094.81	2
601	327.448	3323.38	2
604	326.955	5761.35	2
606	327.196	4900.86	2
611	327.171	6626.45	2
613	326.536	8504.4	2
615	328.067	2904.13	2
617	327.695	1930.43	5
623	327.724	2625.79	2
631	328.804	3745.64	2
632	327.754	5021.31	5
634	327.624	4053.75	2
635	327.922	4153.52	2
640	328.853	4889.38	2
645	327.543	5413.78	2
646	328.596	5911.03	4
648	328.148	6976.28	2
649	328.108	7053.52	3
657	329.278	4069.14	2
661	329.218	2786.26	2
666	328.721	3451.35	2
677	328.547	5143.17	2
679	329.204	5690.32	2
686	331.035	9161	13
688	329.655	2986.78	3
706	330.34	4569.36	2
707	329.716	5039.64	2
710	329.535	5324.66	2
713	330.74	6020.13	6
715	329.875	6428.27	2
720	331.582	3058.79	6
721	331.136	2073.22	2
724	330.718	2682.52	2
727	330.693	3877.95	2
733	331.205	4563.58	5
734	330.695	4097.19	3
735	330.613	4233.21	2
737	330.718	4386.26	2
740	330.924	4899.96	2
743	331.278	5665.54	2
744	331.223	7872.98	3
745	331.337	7923.14	2
749	332.176	2270.56	2
751	332.194	2691.55	2
752	332.426	2807.8	2
753	332.168	2861.09	2
755	331.857	3281.68	2
756	331.857	3447.87	2
765	331.671	4675.63	2
772	332.15	5571.37	2
773	331.843	6335.17	2
774	332.023	8600.95	5
777	332.353	7305.15	2
778	332.189	7734.09	2
779	332.493	9160.61	2
783	332.613	3091.32	2
789	333.209	3285.46	2
792	332.848	3409.49	2
793	333.682	3512.91	2
797	333.203	3623.74	2
799	332.678	3853.29	2
807	332.705	5248.75	2
824	334.033	2141.92	2
828	333.718	3117.78	5
835	334.204	4741.78	4
836	334.18	5077.82	2
838	333.546	5404.29	2
843	334.205	7375.26	2
844	333.887	7760	2
845	335.107	6716.94	5
850	335.473	2495.96	2
852	335.304	2640.26	2
858	335.172	3811.37	2
862	334.93	4877.6	2
868	335.17	5817.45	2
871	335.716	2742.71	2
881	336.614	5447.5	3
882	335.874	3951.69	2
883	336.226	4063.06	3
884	336.174	4201.49	2
886	336.458	4309.99	2
889	335.958	5197.59	2
890	336.192	5275.82	2
893	336.024	5460.71	2
894	336.194	5832.44	2
895	336.226	5914.44	2
901	337.52	1954.47	2
905	336.715	2962.86	2
909	336.718	3712.39	2
914	337.194	4582.17	4
916	337.141	4734.23	3
917	337.313	4826.23	2
919	337.203	5030.61	2
924	337.035	5592.55	3
925	337.205	5686.75	2
926	336.718	6069.18	2
933	336.723	8154.73	2
934	336.726	8284.96	2
935	337.811	8603.41	4
941	337.793	2661.49	2
942	338.182	2721.08	2
945	338.701	3032.96	4
946	338.021	3120.19	2
947	338.34	3182.5	4
948	337.86	3317.48	3
949	337.861	3474.63	3
950	337.861	3583.68	2
951	337.697	4123.47	2
953	337.97	4275.5	2
957	337.618	4630.87	2
958	338.659	4667	2
960	337.829	5035.59	2
966	337.837	6589.68	2
973	339.203	2516.18	2
978	339.185	3537.63	2
979	338.707	3628.99	2
986	339.206	4537.95	2
988	339.033	4952.23	2
989	339.297	5508.99	3
994	339.524	6077.26	2
997	339.578	6682.58	2
1001	338.862	8204.49	2
1002	339.177	8787.86	2
1006	340.354	2511.88	2
1010	340.158	4838.72	3
1027	339.866	6141.03	2
1030	340.209	8444.96	2
1031	340.202	7761.49	3
1040	341.075	2507.59	3
1041	341.152	2857.6	3
1054	340.683	4426.16	3
1059	340.949	5406.25	2
1061	341.325	5855.91	2
1064	340.534	7910.47	2
1065	340.658	9885.96	3
1085	342.415	5190.37	2
1090	342.974	7334.43	5
1095	342.057	7369.98	2
1096	341.815	8981.81	2
1103	343.221	3293.58	2
1104	343.192	2325.52	3
1109	343.661	2878.72	2
1110	343.19	3338.46	3
1113	343.233	3490.21	3
1121	342.811	4268.01	3
1123	343.509	4657.35	2
1124	342.939	4708.96	2
1126	343.457	4942.93	2
1128	342.955	5115.74	2
1130	343.333	5397.34	2
1131	343.196	5416.34	2
1138	343.234	5813.04	4
1151	344.206	2842.1	3
1154	344.194	4088.03	3
1156	344.123	3421.99	2
1161	343.726	4033.66	2
1162	343.706	4176.25	2
1163	343.705	4339.99	2
1166	344.182	4750.44	2
1167	344.221	4891.15	2
1168	343.732	5324.43	2
1171	343.628	5611.27	2
1172	344.224	5827.24	2
1174	343.717	6384.66	3
1177	344.368	6968.52	2
1188	345.17	2637.15	2
1189	345.004	3421.73	6
1196	345.363	3696.94	3
1199	346.245	4575.94	4
1201	344.534	4965.61	2
1210	346.35	2283.22	3
1222	346.569	3970.12	2
1223	345.696	4094.39	2
1226	346.466	4443.65	2
1228	346.528	4678.12	5
1229	346.461	4834.95	2
1231	346.109	5160.19	9
1233	346.211	5189.85	2
1234	346.193	5318.57	2
1240	346.421	7405.63	3
1242	346.342	8666.29	2
1243	347.175	1688.86	2
1246	346.865	4435.26	3
1248	346.535	2517.37	2
1251	346.708	3327.29	2
1253	347.191	3755.99	2
1257	346.708	4216.99	3
1262	347.04	4529.07	2
1269	346.987	5698.02	3
1273	346.554	6164.04	2
1277	346.71	9234.47	2
1278	346.91	9786.29	2
1280	346.509	10230.2	2
1283	348.52	1883.33	2
1286	347.878	1989.17	2
1287	347.853	2076.26	4
1292	347.705	3309.37	3
1294	348.049	3224.96	2
1297	348.701	3570.54	2
1304	347.545	4773.4	3
1306	348.163	5242.21	2
1311	347.528	8346.76	2
1316	349.351	2027.38	2
1324	349.187	3065.62	2
1328	348.688	3664.46	2
1333	349.194	4010.08	2
1334	349.46	4065.51	2
1335	348.833	6341.99	2
1340	349.456	5411.65	2
1344	348.997	6248.98	2
1349	349.035	7858.87	2
1356	350.095	6454.33	7
1358	350.229	2722.78	2
1362	349.542	2967.09	2
1366	350.795	3220.38	4
1376	349.766	4687.3	4
1377	349.778	4839.99	2
1388	350.414	7400.91	3
1389	349.762	7547.27	2
1391	349.703	8639.61	2
1401	350.718	2983.96	3
1404	350.87	3278.34	2
1407	350.988	4150.14	4
1409	350.734	4255.16	2
1411	350.953	4318.3	2
1414	351.195	4787.87	2
1415	350.869	4882.61	2
1417	351.194	5088.41	4
1418	351.68	5155.53	2
1420	350.734	5532.43	2
1422	351.459	5097.55	2
1423	351.231	5807.15	2
1424	351.17	5980.46	2
1426	351.729	6914.51	2
1435	352.19	2294.52	2
1440	351.866	3022.17	2
1441	351.543	3115.42	3
1444	352.14	3415.16	3
1446	351.886	3624.69	3
1452	351.819	4347.22	2
1454	351.889	4594.86	2
1457	351.846	4719.82	2
1458	351.723	5468.09	2
1459	352.193	5695.33	2
1464	351.878	7753.15	2
1472	353.132	3943.48	3
1473	353.294	2153.92	2
1480	353.456	3096.19	2
1484	352.927	3828.65	2
1492	352.945	5176.19	2
1495	353.412	5580.91	2
1498	352.557	6179.02	3
1504	352.527	8482.08	2
1505	352.518	8674.03	2
1507	354.674	5035.78	34
1512	353.845	2273.35	2
1513	354.707	4780.03	2
1515	353.694	2644.87	2
1519	353.712	2909.59	2
1520	354.198	3312.05	2
1528	353.716	4100.61	2
1530	353.653	4519.47	3
1533	353.55	4976.82	2
1534	353.71	5569.88	3
1541	353.688	6963.9	2
1542	353.734	7440.51	2
1548	355.409	3911.48	16
1551	354.689	3125.57	2
1555	355.455	4312.35	2
1556	354.691	5038.27	2
1557	355.183	5463.18	3
1558	354.861	5528.4	2
1561	354.709	7763.6	3
1564	356.507	2701.44	4
1565	356.565	5723.48	2
1569	356.5	3253.08	2
1571	356.684	4189.4	2
1573	355.703	3746.41	2
1575	356.649	4129.83	3
1581	356.68	4893.55	2
1582	356.449	4998.22	2
1583	356.84	5207.06	2
1585	356.58	6580.12	4
1587	356.323	6661.83	2
1595	357.225	2673.8	2
1597	357.202	2912.66	2
1599	356.711	3171.98	2
1605	356.511	3857.76	2
1606	357.73	3958.45	2
1617	357.21	5170.38	2
1618	356.538	5322.92	2
1619	357.221	5407.26	2
1621	356.739	5653.7	2
1623	356.82	6184.1	2
1624	356.734	6438.46	4
1633	356.974	9188.51	2
1634	356.701	9476.1	2
1636	358.197	3082.42	2
1645	358.226	3250.27	2
1650	358.212	4039.07	2
1656	357.689	4596.23	2
1667	358.069	5983.93	3
1668	357.733	6513.82	3
1674	357.666	8588.82	2
1682	358.719	3739.71	2
1684	359.235	4190.4	2
1694	359.464	5380.39	2
1695	358.55	5552.19	2
1697	359.437	5811.03	2
1700	359.433	6168.12	2
1704	358.987	6932.05	2
1705	358.982	8341.63	3
1708	358.739	8303.28	2
1710	359.587	9596.33	3
1714	359.849	2285.64	3
1718	359.92	2933.2	2
1721	360.163	3138.57	2
1736	359.716	5448.04	2
1741	359.734	8037.31	2
1744	360.581	6411.64	2
1747	361.196	1764.02	2
1748	361.18	1887.27	2
1755	361.13	5220.38	8
1758	360.671	2825.63	2
1760	361.195	3336.44	2
1769	361.329	4776.82	2
1772	360.515	5649.89	3
1774	361.537	5860.7	2
1775	361.198	5934.14	2
1782	360.534	7271.97	3
1784	360.839	7582.39	2
1787	361.191	10216.1	2
1788	361.23	10394.4	3
1794	361.77	2626.66	2
1800	362.378	3346.05	2
1804	362.237	5400.15	2
1806	361.88	3783.93	2
1809	361.662	4111.8	3
1810	361.713	4151.63	2
1812	361.561	4350.41	2
1816	361.873	5087.87	2
1818	361.713	5306.3	2
1824	362.415	5821.32	2
1827	362.496	6957.37	4
1828	361.844	7061.68	2
1830	362.119	7848.16	3
1831	362.222	9377.51	5
1850	363.352	7719.77	3
1851	363.234	4259.22	2
1853	363.561	4733.46	2
1854	363.478	4809.26	4
1855	364.049	3828.71	4
1858	362.687	5261.87	2
1859	363.237	5359.75	2
1863	363.213	6148.93	2
1864	362.897	6733.98	2
1870	362.708	9206.8	2
1871	362.946	10240	2
1874	363.704	1984.89	2
1877	363.597	4480.61	2
1878	364.029	2248.98	2
1880	363.527	2595.2	2
1883	364.178	3030.52	2
1886	363.877	3660.3	2
1888	363.847	4220.21	2
1890	363.7	4667.86	2
1891	363.972	5066.09	3
1893	364.4	5193.48	2
1896	363.993	5642.15	3
1903	364.212	6442.44	2
1906	363.885	7268.37	3
1907	364.257	7744.67	4
1908	363.729	7782.19	2
1914	365.447	1701.16	2
1923	364.714	2965.61	3
1924	365.235	3449.14	2
1927	364.702	3269.65	2
1928	364.843	3527.77	3
1932	365.222	4062.49	3
1934	365.304	4474.05	7
1945	365.247	5491.34	2
1946	365.302	6679.43	2
1948	365.229	6076.79	2
1954	365.215	8530.25	2
1956	364.962	8658.79	2
1964	365.554	2482.74	2
1968	366.207	3164.62	2
1971	366.391	3568.95	2
1972	366.307	3633.88	4
1980	366.215	4577.69	3
1982	365.727	5353.15	2
1983	366.188	4814.43	2
1986	365.97	5011.77	2
1988	366.727	5117	3
1990	366.554	5908.13	3
1992	366.031	6567.47	2
1993	366.485	6736.31	2
1994	366.34	6793.69	3
1995	365.897	8073.02	2
1996	365.525	8206.84	2
1999	366.357	10257.5	2
2015	366.503	3728.34	2
2016	366.868	3842.18	2
2020	367.213	4126.53	2
2024	367.322	4762.81	2
2031	367.12	5865.27	3
2034	367.473	6122.18	3
2037	366.538	7287.74	4
2054	367.878	3205.96	3
2056	368.451	3423.24	3
2062	368.217	3947.92	2
2066	367.955	4271.05	2
2078	368.169	6096.97	2
2084	367.713	7795.45	2
2090	368.669	1754.13	2
2109	368.871	4996.33	2
2115	368.946	5584.16	2
2117	369.224	6053.18	2
2120	368.721	6565.1	2
2122	368.715	6856.34	2
2125	368.661	7848.7	2
2129	370.181	3979.3	2
2130	370.282	4064.34	6
2139	369.87	5216.97	2
2145	371.458	4839.57	15
2148	370.728	3556.38	2
2149	371.247	3655.88	2
2152	370.815	5233.95	2
2153	370.658	5030.56	3
2157	372.913	3326.87	7
2158	372.458	2710.43	2
2168	371.711	4710.27	2
2169	372.731	5018.6	2
2170	371.745	5526.97	2
2173	371.745	5855.58	2
2175	371.901	8069.08	2
2177	372.697	7515.49	2
2181	373.529	2187.09	2
2187	373.477	4860.35	10
2190	373.451	3460.29	2
2192	372.765	3872	3
2195	373.419	4941.74	5
2198	372.886	5212.19	2
2199	373.091	5508.6	2
2204	372.905	6523.42	2
2205	372.734	6504.59	2
2210	372.541	8313.72	2
2223	374.2	2781.48	2
2225	373.693	2962.92	2
2228	374.749	4401.52	5
2229	374.03	3238.33	2
2234	374.692	4083.25	2
2236	373.991	5646.64	3
2249	374.211	6406.99	2
2252	374.217	7939.72	3
2254	373.727	7135.72	2
2257	374.242	7952.66	2
2258	374.241	8108.78	2
2259	374.185	8190.71	2
2260	373.843	9876.67	2
2266	374.702	2023.1	2
2276	375.549	4950.81	5
2277	374.845	4090.98	3
2278	375.303	4506.37	4
2283	374.993	4671.62	3
2287	375.213	5334.52	3
2288	375.035	5392.33	2
2289	374.952	5424.94	2
2294	375.219	6251.45	3
2295	374.721	6563.49	2
2296	375.474	6621.65	2
2300	374.502	7260.83	2
2303	375.219	7739.09	2
2306	375.543	6228.65	3
2309	374.74	9447.15	2
2316	376.224	2457.47	2
2318	376.124	2776.65	2
2324	376.279	3539.31	3
2326	376.193	3555.66	2
2332	375.964	4552.34	4
2333	375.698	4643.62	2
2335	375.548	5121.01	2
2340	376.08	5815.1	2
2343	377.062	6295.56	3
2345	375.959	7525.05	2
2362	377.103	3371.89	3
2366	376.97	4859.08	3
2368	377.23	4126.81	2
2371	377.028	4318.82	2
2373	376.97	5248.85	3
2376	376.849	5342.85	4
2379	377.022	5626.18	3
2380	377.12	5849.3	3
2381	377.446	6044.62	2
2382	377.382	6107	2
2384	376.858	7010.59	2
2387	376.65	7851.59	3
2389	376.876	8462.4	3
2395	377.822	2269.33	2
2400	378.699	2878.86	2
2401	378.208	2965.23	2
2403	377.951	3145.69	2
2405	378.435	3567.08	2
2407	377.722	3912.73	2
2411	379.271	4553.8	6
2415	378.266	4604.87	3
2416	378.586	4666.08	3
2417	378.199	4716.95	2
2419	378.672	4822.48	2
2423	378.242	6467.94	2
2425	378.732	7025.57	11
2438	379.002	4234.85	3
2440	378.725	2215.13	2
2446	378.986	3122.35	2
2450	379.326	3727.66	6
2455	378.977	4481.16	2
2459	380.067	6678.42	5
2466	379.201	5764.19	4
2469	379.056	6189.2	2
2471	379.19	6577.8	4
2476	379.461	7805.62	2
2479	379.252	8364.47	2
2481	379.167	9854.05	3
2482	378.708	10661.8	3
2489	379.996	2623.3	2
2502	379.886	4164.59	2
2507	379.874	5250.3	2
2508	379.742	5311.46	2
2514	379.983	6106.54	2
2515	380.09	6312.14	4
2517	380.462	6810.32	2
2519	380.223	7081.88	2
2521	380.213	7687.19	2
2523	379.75	9055.82	3
2524	379.855	9445.22	2
2526	380.225	11342.7	2
2527	380.213	11453.8	2
2528	380.953	1712.75	2
2536	380.868	2323.2	4
2537	381.02	2464.63	2
2539	381.046	2647.99	2
2541	380.719	2763.61	2
2545	380.962	3520.43	2
2548	380.723	3361.22	2
2558	380.777	4788.09	2
2566	381.523	5619.01	2
2576	380.538	8645.42	2
2584	382.451	3099.87	2
2585	381.561	3218.27	2
2586	382.009	3984.54	3
2588	381.658	3826.18	2
2589	381.723	4034.53	2
2596	381.94	4557.01	4
2597	382.34	4665.87	3
2598	381.93	4807.27	2
2603	382.21	5256.24	2
2612	382.199	7657.8	2
2618	381.554	10829.3	4
2621	382.535	1899.44	2
2634	382.718	4160.87	2
2638	383.359	4716.1	2
2639	383.64	4315.26	3
2641	382.868	4965.38	2
2642	383.135	5062.86	4
2643	383.102	8067.91	3
2648	383.465	5809.77	2
2652	383.201	6387.79	2
2665	382.867	8108.87	2
2668	382.995	10060.9	3
2677	384.58	2982.57	2
2681	383.959	3286.15	2
2683	383.701	3452.6	2
2694	384.651	5158.4	2
2695	383.884	5595.15	2
2703	383.846	7203.54	2
2705	384.694	5237.61	4
2706	383.552	7650.28	2
2707	383.699	8373.82	2
2708	384.725	9563.01	6
2710	384.37	9313.79	3
2716	384.952	1976.3	2
2721	385.447	4643.48	4
2733	385.221	3565.26	2
2735	385.394	4912.41	4
2737	384.794	3912.09	2
2744	384.854	5229.1	2
2746	385.269	5160.73	4
2750	385.213	6475.33	2
2751	385.192	7028.82	2
2754	384.636	7861.58	2
2770	386.371	2478.64	2
2780	385.748	3843.73	2
2781	386.052	3802.59	3
2785	385.962	4208.74	2
2787	386.967	5083.49	3
2788	386.209	4409.23	3
2789	386.24	4523.33	2
2791	385.939	4839.45	2
2797	385.814	5580.61	2
2800	386.121	5629.91	2
2801	386.049	5843.68	2
2803	385.764	6549.99	6
2808	385.864	7149.79	2
2814	386.191	8600.73	2
2820	385.545	10195.5	2
2831	387.796	3101.58	4
2832	387.228	3801.11	2
2833	386.729	3036.11	2
2835	386.777	4185.21	3
2837	386.96	3649.06	3
2840	386.712	3773.26	2
2841	386.774	4077.55	2
2845	387.222	4779.02	2
2847	387.233	4900.63	2
2854	386.75	5692.43	2
2858	386.75	6093.49	2
2859	387.212	6140.41	2
2864	387.25	7820.39	2
2869	387.706	10406.7	2
2870	386.554	11595.7	2
2872	387.707	1693.5	2
2874	388.079	1974.26	2
2877	388.199	2431.17	2
2878	388.304	4440.77	7
2881	388.448	2938.3	2
2883	388.246	3803.59	2
2886	387.707	3550.22	2
2890	388.269	3779.8	3
2893	387.95	4156.75	2
2896	388.224	4560.13	2
2898	388.398	5150.52	2
2900	388.223	5247.03	2
2905	387.731	5751.39	2
2908	388.624	6393.65	9
2909	387.892	6768.97	2
2912	388.217	7577.52	2
2913	388.245	7697.77	2
2919	389.257	1817.14	2
2924	389.396	2824.46	2
2925	389.625	2865.89	3
2929	389.286	3314.57	3
2933	389.392	3722.78	2
2935	389.486	3699.59	2
2936	388.916	4654.49	4
2939	389.593	4263.33	2
2940	389.387	4397.16	2
2943	389.231	5981.38	2
2947	389.319	5338.94	3
2950	388.607	5573.45	2
2956	389.229	6894.67	4
2959	389.229	7425.49	2
2964	388.552	7919.67	4
2967	389.248	8627.53	2
2969	388.502	10035.5	3
2979	390.712	2339.84	2
2987	390.039	3521.64	2
2988	390.224	3587.63	2
2989	390.219	3815.53	2
2991	389.969	4294.73	2
2992	390.295	4682.98	2
2995	389.628	4942.37	2
2996	389.853	4982.5	2
2998	389.543	5300.37	2
3002	390.206	6055.16	2
3003	390.35	6408.48	2
3005	390.183	7516.67	2
3010	389.735	9328.23	2
3012	389.676	9664.78	3
3013	389.684	11452.3	2
3021	391.547	3371.66	5
3022	391.375	3187.76	2
3023	390.885	3380	2
3024	391.201	6721.17	2
3026	391.682	3925.22	2
3027	390.888	4342.34	2
3028	391.037	4487.06	3
3039	391.677	6920.84	4
3040	391.281	7083.59	2
3041	391.454	7289.5	2
3042	391.082	8063.25	7
3043	391.325	7908.17	3
3044	391.593	9129.8	2
3048	391.73	4637.2	4
3049	392.149	2205.33	2
3055	391.986	3940.59	2
3059	391.764	4684.14	2
3060	392.253	4795.29	2
3061	392.574	5212.03	7
3062	392.475	5282.76	2
3066	392.258	5693.4	2
3069	391.761	5992.26	2
3073	391.807	7384.24	2
3074	392.214	8633.46	2
3076	392.013	9638.02	2
3082	393.379	4483.52	7
3083	392.809	2715.36	4
3084	392.946	2950.56	2
3094	393.211	4085.27	2
3097	393.553	4628.4	2
3098	392.545	4856.62	4
3100	392.733	5496.89	2
3101	393.248	5584.44	2
3104	393.639	6072.28	3
3105	393.533	6243.83	4
3106	392.966	6537.78	2
3109	393.509	6432.47	2
3110	393.26	7155.47	3
3112	392.697	7472.25	3
3115	393.348	7748.43	3
3116	393.247	7950.65	2
3118	392.748	8561.95	2
3121	392.711	10352.3	3
3127	394.237	3771.35	3
3130	394.581	3099.29	2
3131	393.746	3306	2
3133	393.866	3388.75	2
3136	393.692	3590.27	2
3146	393.88	5040.73	3
3149	394.287	5420.52	3
3153	394.826	5978.11	2
3154	393.758	6655.1	2
3156	393.981	6830.6	2
